#TITLE	
#DATA TYPE	ULTRAVIOLET SPECTRUM
#ORIGIN	JASCO
#OWNER	
#DATE	23/05/03
#TIME	12:00:04
#SPECTROMETER/DATA SYSTEM	
#LOCALE	1033
#RESOLUTION	
#DELTAX	-0.2
#XUNITS	NANOMETERS
#YUNITS	ABSORBANCE
#FIRSTX	  800.0000
#LASTX	  300.0000
#NPOINTS	    2501
#FIRSTY	     0.03977
#MAXY	     1.96565
#MINY	     0.03974
#XYDATA
800.0000	0.0397687
799.8000	0.0397403
799.6000	0.0397354
799.4000	0.0397539
799.2000	0.0398492
799.0000	0.0398739
798.8000	0.0399009
798.6000	0.0399625
798.4000	0.0400258
798.2000	0.0401044
798.0000	0.0401253
797.8000	0.0402249
797.6000	0.0401742
797.4000	0.0402013
797.2000	0.0402109
797.0000	0.0402523
796.8000	0.0403071
796.6000	0.0403657
796.4000	0.0403662
796.2000	0.0404482
796.0000	0.0405279
795.8000	0.0405711
795.6000	0.0405786
795.4000	0.0406255
795.2000	0.0406311
795.0000	0.0406698
794.8000	0.0407023
794.6000	0.0407567
794.4000	0.0407977
794.2000	0.0408592
794.0000	0.0409643
793.8000	0.0409617
793.6000	0.0409926
793.4000	0.0410556
793.2000	0.0411059
793.0000	0.0411941
792.8000	0.0412638
792.6000	0.041328
792.4000	0.0413773
792.2000	0.0414396
792.0000	0.0414068
791.8000	0.0414445
791.6000	0.0415193
791.4000	0.041565
791.2000	0.0416518
791.0000	0.0417583
790.8000	0.0418044
790.6000	0.0418365
790.4000	0.0418897
790.2000	0.0419301
790.0000	0.0420116
789.8000	0.0420056
789.6000	0.0420123
789.4000	0.042096
789.2000	0.0421296
789.0000	0.0422125
788.8000	0.0422745
788.6000	0.0423362
788.4000	0.0423581
788.2000	0.0423343
788.0000	0.0423915
787.8000	0.0424032
787.6000	0.0424113
787.4000	0.0425055
787.2000	0.0425448
787.0000	0.0426306
786.8000	0.0427241
786.6000	0.0427619
786.4000	0.042773
786.2000	0.0428586
786.0000	0.0429096
785.8000	0.0428965
785.6000	0.0429504
785.4000	0.0429739
785.2000	0.0429973
785.0000	0.0430633
784.8000	0.0430847
784.6000	0.043047
784.4000	0.043132
784.2000	0.0431758
784.0000	0.0431762
783.8000	0.0432208
783.6000	0.0432668
783.4000	0.0433548
783.2000	0.0434409
783.0000	0.0434413
782.8000	0.0434962
782.6000	0.0435088
782.4000	0.0435864
782.2000	0.0436292
782.0000	0.0437206
781.8000	0.0438125
781.6000	0.0438708
781.4000	0.043971
781.2000	0.0440146
781.0000	0.0440407
780.8000	0.0440807
780.6000	0.0440961
780.4000	0.0441116
780.2000	0.0441456
780.0000	0.0441875
779.8000	0.044187
779.6000	0.0442456
779.4000	0.0443192
779.2000	0.0443728
779.0000	0.0444428
778.8000	0.0444691
778.6000	0.0445051
778.4000	0.0445707
778.2000	0.0446654
778.0000	0.0447221
777.8000	0.0447915
777.6000	0.0449033
777.4000	0.044957
777.2000	0.0450262
777.0000	0.0450675
776.8000	0.0451051
776.6000	0.0451774
776.4000	0.0452535
776.2000	0.0453159
776.0000	0.045375
775.8000	0.0454071
775.6000	0.0454491
775.4000	0.0454801
775.2000	0.0455477
775.0000	0.0455924
774.8000	0.0456654
774.6000	0.0457138
774.4000	0.0457565
774.2000	0.0458144
774.0000	0.0458814
773.8000	0.0459407
773.6000	0.045975
773.4000	0.0460573
773.2000	0.0460869
773.0000	0.0461578
772.8000	0.046262
772.6000	0.0463137
772.4000	0.0464054
772.2000	0.0464565
772.0000	0.0465037
771.8000	0.0465713
771.6000	0.046612
771.4000	0.0466377
771.2000	0.0466698
771.0000	0.046752
770.8000	0.0467771
770.6000	0.046837
770.4000	0.0469055
770.2000	0.0469533
770.0000	0.0469736
769.8000	0.0470688
769.6000	0.0471419
769.4000	0.0472045
769.2000	0.0472666
769.0000	0.0473151
768.8000	0.0473556
768.6000	0.0474461
768.4000	0.0475041
768.2000	0.0475438
768.0000	0.0475813
767.8000	0.0476693
767.6000	0.0477361
767.4000	0.0478101
767.2000	0.0478745
767.0000	0.0478839
766.8000	0.0479543
766.6000	0.0479861
766.4000	0.0480189
766.2000	0.0480815
766.0000	0.0481166
765.8000	0.0481597
765.6000	0.0481983
765.4000	0.0482526
765.2000	0.0483337
765.0000	0.0484216
764.8000	0.0484748
764.6000	0.0484856
764.4000	0.048548
764.2000	0.0486498
764.0000	0.0486869
763.8000	0.0487248
763.6000	0.0488115
763.4000	0.0488589
763.2000	0.0489029
763.0000	0.0489977
762.8000	0.0490314
762.6000	0.049089
762.4000	0.0491448
762.2000	0.0491983
762.0000	0.0492733
761.8000	0.0493344
761.6000	0.0494086
761.4000	0.0494267
761.2000	0.0494864
761.0000	0.0495405
760.8000	0.0495904
760.6000	0.0497005
760.4000	0.049725
760.2000	0.0497836
760.0000	0.0498632
759.8000	0.0499377
759.6000	0.0500049
759.4000	0.0500599
759.2000	0.0501202
759.0000	0.0501769
758.8000	0.0502288
758.6000	0.0502744
758.4000	0.0503354
758.2000	0.0504077
758.0000	0.0504813
757.8000	0.0505071
757.6000	0.0505667
757.4000	0.0506414
757.2000	0.050686
757.0000	0.0507176
756.8000	0.0507398
756.6000	0.0507794
756.4000	0.0508099
756.2000	0.0508705
756.0000	0.0509112
755.8000	0.0509857
755.6000	0.0510115
755.4000	0.0510921
755.2000	0.0511568
755.0000	0.0512232
754.8000	0.0512239
754.6000	0.0512687
754.4000	0.0513368
754.2000	0.0513526
754.0000	0.0514301
753.8000	0.0514957
753.6000	0.0515262
753.4000	0.0515724
753.2000	0.0516614
753.0000	0.0517516
752.8000	0.051829
752.6000	0.0518651
752.4000	0.0518488
752.2000	0.0518733
752.0000	0.0519291
751.8000	0.0519963
751.6000	0.0520372
751.4000	0.0520797
751.2000	0.0521274
751.0000	0.0521978
750.8000	0.0522794
750.6000	0.0523771
750.4000	0.0524347
750.2000	0.0524862
750.0000	0.052552
749.8000	0.0526337
749.6000	0.0526863
749.4000	0.0527437
749.2000	0.0528303
749.0000	0.0528615
748.8000	0.0529351
748.6000	0.053025
748.4000	0.0530968
748.2000	0.0531678
748.0000	0.0531786
747.8000	0.0532789
747.6000	0.0533316
747.4000	0.053415
747.2000	0.0534745
747.0000	0.0535214
746.8000	0.0535341
746.6000	0.0536151
746.4000	0.0536776
746.2000	0.0537727
746.0000	0.0538834
745.8000	0.0539731
745.6000	0.0540044
745.4000	0.0540932
745.2000	0.0541826
745.0000	0.0542369
744.8000	0.0542582
744.6000	0.0542934
744.4000	0.0543612
744.2000	0.0544123
744.0000	0.054486
743.8000	0.0545505
743.6000	0.0546097
743.4000	0.0546744
743.2000	0.0547601
743.0000	0.0548155
742.8000	0.0548445
742.6000	0.0549456
742.4000	0.0550123
742.2000	0.0550812
742.0000	0.0551407
741.8000	0.0552175
741.6000	0.0553349
741.4000	0.0553814
741.2000	0.0554559
741.0000	0.0555213
740.8000	0.0555885
740.6000	0.0556473
740.4000	0.0557286
740.2000	0.0557709
740.0000	0.0558809
739.8000	0.0559413
739.6000	0.0559986
739.4000	0.0560596
739.2000	0.0561023
739.0000	0.0561779
738.8000	0.0562633
738.6000	0.0563557
738.4000	0.0564567
738.2000	0.0565393
738.0000	0.0566058
737.8000	0.0566785
737.6000	0.0567721
737.4000	0.0568949
737.2000	0.0569279
737.0000	0.0569896
736.8000	0.0570935
736.6000	0.0571805
736.4000	0.0572344
736.2000	0.0573204
736.0000	0.0574434
735.8000	0.0575007
735.6000	0.0576099
735.4000	0.0576904
735.2000	0.0577448
735.0000	0.0578123
734.8000	0.0578109
734.6000	0.0578939
734.4000	0.057967
734.2000	0.0580204
734.0000	0.0580869
733.8000	0.0581492
733.6000	0.0582139
733.4000	0.0583182
733.2000	0.0584239
733.0000	0.0584931
732.8000	0.0585454
732.6000	0.0586198
732.4000	0.0587363
732.2000	0.0587985
732.0000	0.0588403
731.8000	0.0589091
731.6000	0.0589836
731.4000	0.0590817
731.2000	0.0591246
731.0000	0.05916
730.8000	0.0592579
730.6000	0.0593314
730.4000	0.0593654
730.2000	0.0594211
730.0000	0.059523
729.8000	0.0596005
729.6000	0.0596279
729.4000	0.0597007
729.2000	0.0597271
729.0000	0.0597895
728.8000	0.0598984
728.6000	0.0600054
728.4000	0.0601167
728.2000	0.0602224
728.0000	0.0603024
727.8000	0.0604142
727.6000	0.0605501
727.4000	0.0606397
727.2000	0.0607191
727.0000	0.0607702
726.8000	0.0608522
726.6000	0.0609936
726.4000	0.0610987
726.2000	0.0611554
726.0000	0.061195
725.8000	0.0613126
725.6000	0.061423
725.4000	0.0615142
725.2000	0.0615706
725.0000	0.0616513
724.8000	0.0617536
724.6000	0.0618753
724.4000	0.0619435
724.2000	0.0620221
724.0000	0.0621002
723.8000	0.0621835
723.6000	0.0622784
723.4000	0.0623366
723.2000	0.062439
723.0000	0.0625015
722.8000	0.0626063
722.6000	0.0627193
722.4000	0.0628146
722.2000	0.0629167
722.0000	0.0630199
721.8000	0.0631029
721.6000	0.0631472
721.4000	0.0632605
721.2000	0.0633171
721.0000	0.0634231
720.8000	0.0635028
720.6000	0.0636015
720.4000	0.0636945
720.2000	0.0637287
720.0000	0.0638227
719.8000	0.0639238
719.6000	0.064014
719.4000	0.0641064
719.2000	0.0642021
719.0000	0.0643003
718.8000	0.0644128
718.6000	0.0644738
718.4000	0.064542
718.2000	0.0646229
718.0000	0.064732
717.8000	0.064844
717.6000	0.0649339
717.4000	0.0650031
717.2000	0.0650762
717.0000	0.0651948
716.8000	0.0652794
716.6000	0.0653641
716.4000	0.0654415
716.2000	0.0654945
716.0000	0.065585
715.8000	0.0656801
715.6000	0.0657691
715.4000	0.0658467
715.2000	0.0659496
715.0000	0.0659991
714.8000	0.0660844
714.6000	0.0661486
714.4000	0.0662505
714.2000	0.0663301
714.0000	0.0663998
713.8000	0.066515
713.6000	0.0665948
713.4000	0.0666791
713.2000	0.0667542
713.0000	0.0668005
712.8000	0.0668597
712.6000	0.0669186
712.4000	0.0669998
712.2000	0.0670772
712.0000	0.0671811
711.8000	0.0672778
711.6000	0.0673616
711.4000	0.0674602
711.2000	0.0675544
711.0000	0.0676846
710.8000	0.0677733
710.6000	0.0678272
710.4000	0.0678874
710.2000	0.0680155
710.0000	0.0680863
709.8000	0.0681917
709.6000	0.0682467
709.4000	0.0683155
709.2000	0.0684073
709.0000	0.0684852
708.8000	0.0685591
708.6000	0.0686863
708.4000	0.068785
708.2000	0.0688687
708.0000	0.0689499
707.8000	0.0690567
707.6000	0.0691065
707.4000	0.069189
707.2000	0.0692771
707.0000	0.0693843
706.8000	0.0694962
706.6000	0.0695862
706.4000	0.0696821
706.2000	0.0698057
706.0000	0.0698621
705.8000	0.0699739
705.6000	0.0700684
705.4000	0.0701389
705.2000	0.0701878
705.0000	0.0702657
704.8000	0.0703987
704.6000	0.070454
704.4000	0.0705418
704.2000	0.0706489
704.0000	0.0707669
703.8000	0.0708398
703.6000	0.0709757
703.4000	0.0710958
703.2000	0.0712097
703.0000	0.071277
702.8000	0.0713335
702.6000	0.0714248
702.4000	0.0715566
702.2000	0.0716185
702.0000	0.0716818
701.8000	0.0717815
701.6000	0.0718871
701.4000	0.0719641
701.2000	0.0720835
701.0000	0.0721635
700.8000	0.0722337
700.6000	0.0723408
700.4000	0.0724344
700.2000	0.0725574
700.0000	0.0726305
699.8000	0.0727028
699.6000	0.0728041
699.4000	0.0728958
699.2000	0.0729863
699.0000	0.0730951
698.8000	0.0732177
698.6000	0.0733042
698.4000	0.0733644
698.2000	0.0735099
698.0000	0.0736218
697.8000	0.0737484
697.6000	0.0738436
697.4000	0.0739486
697.2000	0.0740243
697.0000	0.0741288
696.8000	0.074232
696.6000	0.0743629
696.4000	0.0744418
696.2000	0.074552
696.0000	0.0746426
695.8000	0.0747706
695.6000	0.0748735
695.4000	0.0749789
695.2000	0.0750597
695.0000	0.075154
694.8000	0.0752857
694.6000	0.0754306
694.4000	0.0755602
694.2000	0.0756431
694.0000	0.0757447
693.8000	0.0758544
693.6000	0.0759827
693.4000	0.0761085
693.2000	0.0762295
693.0000	0.0763347
692.8000	0.0764509
692.6000	0.076546
692.4000	0.0766579
692.2000	0.0767623
692.0000	0.0768713
691.8000	0.0769237
691.6000	0.0770437
691.4000	0.0771478
691.2000	0.0772551
691.0000	0.0773782
690.8000	0.0774653
690.6000	0.0775497
690.4000	0.0776677
690.2000	0.0777771
690.0000	0.0779123
689.8000	0.0780377
689.6000	0.078146
689.4000	0.0782555
689.2000	0.0783814
689.0000	0.0785101
688.8000	0.0786145
688.6000	0.0787261
688.4000	0.0788386
688.2000	0.0789344
688.0000	0.0790341
687.8000	0.0791577
687.6000	0.0792891
687.4000	0.0794045
687.2000	0.0795166
687.0000	0.0796394
686.8000	0.0797346
686.6000	0.0798405
686.4000	0.0799301
686.2000	0.0800632
686.0000	0.080193
685.8000	0.0803222
685.6000	0.0804371
685.4000	0.0805592
685.2000	0.0806642
685.0000	0.0808042
684.8000	0.0809354
684.6000	0.0810711
684.4000	0.0812338
684.2000	0.0813425
684.0000	0.0814622
683.8000	0.081564
683.6000	0.0817143
683.4000	0.0818202
683.2000	0.0819373
683.0000	0.0820437
682.8000	0.0821882
682.6000	0.0823072
682.4000	0.0824585
682.2000	0.0825769
682.0000	0.0826869
681.8000	0.0828094
681.6000	0.0829649
681.4000	0.0830907
681.2000	0.0832142
681.0000	0.0833433
680.8000	0.0834731
680.6000	0.0835946
680.4000	0.0837631
680.2000	0.0838977
680.0000	0.0840446
679.8000	0.0841597
679.6000	0.0842932
679.4000	0.084449
679.2000	0.0845787
679.0000	0.0847133
678.8000	0.0848363
678.6000	0.0849416
678.4000	0.0850807
678.2000	0.0851765
678.0000	0.0852877
677.8000	0.0854115
677.6000	0.0855424
677.4000	0.0856739
677.2000	0.085798
677.0000	0.0859443
676.8000	0.0860824
676.6000	0.0861913
676.4000	0.0863092
676.2000	0.0864319
676.0000	0.0865581
675.8000	0.0867287
675.6000	0.0868561
675.4000	0.0869868
675.2000	0.0871074
675.0000	0.0872509
674.8000	0.0873696
674.6000	0.0875
674.4000	0.0876188
674.2000	0.0877391
674.0000	0.0878667
673.8000	0.0880159
673.6000	0.0881618
673.4000	0.0882651
673.2000	0.0883868
673.0000	0.0884778
672.8000	0.0886011
672.6000	0.0887524
672.4000	0.0888952
672.2000	0.0890231
672.0000	0.0891321
671.8000	0.0892926
671.6000	0.0894601
671.4000	0.0896205
671.2000	0.0897425
671.0000	0.0898958
670.8000	0.0900399
670.6000	0.0901767
670.4000	0.0903318
670.2000	0.0904767
670.0000	0.0906014
669.8000	0.0907179
669.6000	0.090843
669.4000	0.0909711
669.2000	0.0911071
669.0000	0.0912273
668.8000	0.0913702
668.6000	0.091497
668.4000	0.091633
668.2000	0.0917745
668.0000	0.0919311
667.8000	0.0920745
667.6000	0.0922165
667.4000	0.0923409
667.2000	0.0924824
667.0000	0.0926684
666.8000	0.0927743
666.6000	0.0929255
666.4000	0.0930915
666.2000	0.093229
666.0000	0.0933782
665.8000	0.0935001
665.6000	0.093625
665.4000	0.0937362
665.2000	0.0938525
665.0000	0.093982
664.8000	0.0941268
664.6000	0.0942375
664.4000	0.0943465
664.2000	0.09448
664.0000	0.0946255
663.8000	0.0947925
663.6000	0.0949318
663.4000	0.095088
663.2000	0.0952402
663.0000	0.0953716
662.8000	0.0955353
662.6000	0.095684
662.4000	0.0958028
662.2000	0.0959109
662.0000	0.0960484
661.8000	0.0961971
661.6000	0.0963433
661.4000	0.0964798
661.2000	0.0965798
661.0000	0.0967303
660.8000	0.0968654
660.6000	0.0970056
660.4000	0.0971852
660.2000	0.0973263
660.0000	0.0974584
659.8000	0.0976062
659.6000	0.0977433
659.4000	0.0979232
659.2000	0.0980819
659.0000	0.0982488
658.8000	0.0983812
658.6000	0.0985383
658.4000	0.0987005
658.2000	0.0988664
658.0000	0.0990167
657.8000	0.0991718
657.6000	0.0993003
657.4000	0.0994404
657.2000	0.0996051
657.0000	0.0997637
656.8000	0.0998961
656.6000	0.100041
656.4000	0.100179
656.2000	0.100355
656.0000	0.100515
655.8000	0.100703
655.6000	0.100859
655.4000	0.100989
655.2000	0.101129
655.0000	0.10129
654.8000	0.101479
654.6000	0.101631
654.4000	0.101788
654.2000	0.101943
654.0000	0.102098
653.8000	0.102281
653.6000	0.102446
653.4000	0.10259
653.2000	0.102751
653.0000	0.102909
652.8000	0.103087
652.6000	0.103225
652.4000	0.103378
652.2000	0.103519
652.0000	0.103678
651.8000	0.10386
651.6000	0.104028
651.4000	0.104181
651.2000	0.104341
651.0000	0.104489
650.8000	0.104649
650.6000	0.104804
650.4000	0.104987
650.2000	0.105161
650.0000	0.105328
649.8000	0.10549
649.6000	0.105679
649.4000	0.105826
649.2000	0.10601
649.0000	0.106194
648.8000	0.106382
648.6000	0.106544
648.4000	0.106719
648.2000	0.106899
648.0000	0.107084
647.8000	0.107248
647.6000	0.107416
647.4000	0.107587
647.2000	0.107771
647.0000	0.107944
646.8000	0.108112
646.6000	0.108271
646.4000	0.108472
646.2000	0.108691
646.0000	0.108894
645.8000	0.109097
645.6000	0.109272
645.4000	0.109453
645.2000	0.109648
645.0000	0.109846
644.8000	0.110039
644.6000	0.110233
644.4000	0.110427
644.2000	0.110634
644.0000	0.110823
643.8000	0.111011
643.6000	0.111184
643.4000	0.111361
643.2000	0.111539
643.0000	0.111756
642.8000	0.111954
642.6000	0.112136
642.4000	0.11232
642.2000	0.112545
642.0000	0.112732
641.8000	0.112938
641.6000	0.113123
641.4000	0.11334
641.2000	0.113527
641.0000	0.113724
640.8000	0.113906
640.6000	0.114144
640.4000	0.114359
640.2000	0.11456
640.0000	0.114717
639.8000	0.114899
639.6000	0.115101
639.4000	0.115297
639.2000	0.115493
639.0000	0.115689
638.8000	0.115897
638.6000	0.1161
638.4000	0.116291
638.2000	0.1165
638.0000	0.116693
637.8000	0.116878
637.6000	0.117095
637.4000	0.117312
637.2000	0.117522
637.0000	0.117742
636.8000	0.117931
636.6000	0.118118
636.4000	0.118318
636.2000	0.118522
636.0000	0.118737
635.8000	0.118911
635.6000	0.119111
635.4000	0.119321
635.2000	0.119527
635.0000	0.119737
634.8000	0.119952
634.6000	0.120146
634.4000	0.120344
634.2000	0.120519
634.0000	0.120716
633.8000	0.120937
633.6000	0.121155
633.4000	0.121366
633.2000	0.121582
633.0000	0.121778
632.8000	0.121985
632.6000	0.122196
632.4000	0.122395
632.2000	0.122596
632.0000	0.122821
631.8000	0.123035
631.6000	0.12327
631.4000	0.123507
631.2000	0.12371
631.0000	0.12391
630.8000	0.124119
630.6000	0.124317
630.4000	0.12454
630.2000	0.124757
630.0000	0.124971
629.8000	0.125208
629.6000	0.125397
629.4000	0.125614
629.2000	0.12583
629.0000	0.126027
628.8000	0.126253
628.6000	0.126449
628.4000	0.126676
628.2000	0.126898
628.0000	0.127122
627.8000	0.127341
627.6000	0.127564
627.4000	0.127782
627.2000	0.128002
627.0000	0.128212
626.8000	0.128403
626.6000	0.128642
626.4000	0.128867
626.2000	0.129091
626.0000	0.129327
625.8000	0.129549
625.6000	0.129756
625.4000	0.129989
625.2000	0.130188
625.0000	0.130399
624.8000	0.130618
624.6000	0.13084
624.4000	0.131082
624.2000	0.13131
624.0000	0.131549
623.8000	0.131775
623.6000	0.132003
623.4000	0.132228
623.2000	0.132457
623.0000	0.132691
622.8000	0.132911
622.6000	0.133151
622.4000	0.133362
622.2000	0.133614
622.0000	0.133857
621.8000	0.134096
621.6000	0.134325
621.4000	0.134565
621.2000	0.134809
621.0000	0.135052
620.8000	0.135286
620.6000	0.135519
620.4000	0.13576
620.2000	0.135985
620.0000	0.136217
619.8000	0.136477
619.6000	0.136713
619.4000	0.136952
619.2000	0.137207
619.0000	0.137436
618.8000	0.137685
618.6000	0.13793
618.4000	0.138168
618.2000	0.138429
618.0000	0.138667
617.8000	0.138908
617.6000	0.139158
617.4000	0.139415
617.2000	0.139658
617.0000	0.139887
616.8000	0.140145
616.6000	0.140404
616.4000	0.140673
616.2000	0.140922
616.0000	0.141192
615.8000	0.141434
615.6000	0.141658
615.4000	0.141911
615.2000	0.142162
615.0000	0.142418
614.8000	0.142644
614.6000	0.142889
614.4000	0.143151
614.2000	0.143414
614.0000	0.143679
613.8000	0.143947
613.6000	0.144222
613.4000	0.144457
613.2000	0.144714
613.0000	0.144981
612.8000	0.145232
612.6000	0.145504
612.4000	0.145779
612.2000	0.146058
612.0000	0.146335
611.8000	0.146603
611.6000	0.146868
611.4000	0.147139
611.2000	0.147393
611.0000	0.147675
610.8000	0.147948
610.6000	0.148229
610.4000	0.148502
610.2000	0.148774
610.0000	0.149035
609.8000	0.149304
609.6000	0.149566
609.4000	0.149842
609.2000	0.150117
609.0000	0.150389
608.8000	0.150674
608.6000	0.150953
608.4000	0.151242
608.2000	0.151517
608.0000	0.151794
607.8000	0.152068
607.6000	0.152366
607.4000	0.152655
607.2000	0.152927
607.0000	0.153207
606.8000	0.15349
606.6000	0.153799
606.4000	0.154092
606.2000	0.154362
606.0000	0.154648
605.8000	0.154934
605.6000	0.155208
605.4000	0.155492
605.2000	0.155779
605.0000	0.156074
604.8000	0.156372
604.6000	0.156639
604.4000	0.156921
604.2000	0.157232
604.0000	0.157542
603.8000	0.157828
603.6000	0.158147
603.4000	0.158438
603.2000	0.158738
603.0000	0.159037
602.8000	0.159353
602.6000	0.159651
602.4000	0.159983
602.2000	0.160295
602.0000	0.160603
601.8000	0.160908
601.6000	0.161215
601.4000	0.161533
601.2000	0.161836
601.0000	0.162134
600.8000	0.162445
600.6000	0.162762
600.4000	0.163075
600.2000	0.163368
600.0000	0.163525
599.8000	0.163842
599.6000	0.164131
599.4000	0.16443
599.2000	0.164729
599.0000	0.165048
598.8000	0.165387
598.6000	0.165699
598.4000	0.166014
598.2000	0.166329
598.0000	0.166645
597.8000	0.166973
597.6000	0.167302
597.4000	0.167622
597.2000	0.167934
597.0000	0.168239
596.8000	0.168581
596.6000	0.168924
596.4000	0.169266
596.2000	0.169586
596.0000	0.169921
595.8000	0.170254
595.6000	0.170582
595.4000	0.170926
595.2000	0.171255
595.0000	0.171578
594.8000	0.171899
594.6000	0.172263
594.4000	0.17262
594.2000	0.172985
594.0000	0.173316
593.8000	0.173645
593.6000	0.173962
593.4000	0.174321
593.2000	0.174678
593.0000	0.175013
592.8000	0.175357
592.6000	0.175706
592.4000	0.176056
592.2000	0.176417
592.0000	0.176759
591.8000	0.177097
591.6000	0.177423
591.4000	0.177766
591.2000	0.178142
591.0000	0.178511
590.8000	0.17886
590.6000	0.179212
590.4000	0.179549
590.2000	0.179905
590.0000	0.180256
589.8000	0.18062
589.6000	0.180962
589.4000	0.181298
589.2000	0.181664
589.0000	0.182038
588.8000	0.182426
588.6000	0.182802
588.4000	0.183164
588.2000	0.183521
588.0000	0.183877
587.8000	0.184251
587.6000	0.184628
587.4000	0.184998
587.2000	0.185375
587.0000	0.185738
586.8000	0.186133
586.6000	0.186533
586.4000	0.186911
586.2000	0.187278
586.0000	0.187632
585.8000	0.187999
585.6000	0.188394
585.4000	0.188783
585.2000	0.18918
585.0000	0.189557
584.8000	0.189943
584.6000	0.190352
584.4000	0.190767
584.2000	0.191181
584.0000	0.191588
583.8000	0.191981
583.6000	0.192381
583.4000	0.192798
583.2000	0.193209
583.0000	0.193619
582.8000	0.194013
582.6000	0.194406
582.4000	0.194828
582.2000	0.195237
582.0000	0.19566
581.8000	0.19606
581.6000	0.196479
581.4000	0.196891
581.2000	0.197315
581.0000	0.197737
580.8000	0.198151
580.6000	0.198545
580.4000	0.198961
580.2000	0.19938
580.0000	0.19981
579.8000	0.200243
579.6000	0.200674
579.4000	0.201096
579.2000	0.201534
579.0000	0.20198
578.8000	0.20242
578.6000	0.202865
578.4000	0.203285
578.2000	0.203701
578.0000	0.20414
577.8000	0.204567
577.6000	0.204992
577.4000	0.205414
577.2000	0.205833
577.0000	0.20626
576.8000	0.206728
576.6000	0.207182
576.4000	0.207623
576.2000	0.208056
576.0000	0.208473
575.8000	0.208932
575.6000	0.209396
575.4000	0.20985
575.2000	0.210291
575.0000	0.210741
574.8000	0.211194
574.6000	0.211657
574.4000	0.212115
574.2000	0.212599
574.0000	0.213042
573.8000	0.213494
573.6000	0.213967
573.4000	0.214434
573.2000	0.214901
573.0000	0.215381
572.8000	0.215833
572.6000	0.216295
572.4000	0.216751
572.2000	0.217226
572.0000	0.217698
571.8000	0.218151
571.6000	0.218616
571.4000	0.219082
571.2000	0.219565
571.0000	0.220051
570.8000	0.220539
570.6000	0.221013
570.4000	0.221471
570.2000	0.221955
570.0000	0.222443
569.8000	0.222927
569.6000	0.223413
569.4000	0.223891
569.2000	0.224376
569.0000	0.224865
568.8000	0.225352
568.6000	0.225828
568.4000	0.226305
568.2000	0.226785
568.0000	0.22729
567.8000	0.227778
567.6000	0.228263
567.4000	0.228734
567.2000	0.229216
567.0000	0.229711
566.8000	0.230221
566.6000	0.230725
566.4000	0.231208
566.2000	0.231695
566.0000	0.232204
565.8000	0.232686
565.6000	0.233181
565.4000	0.23368
565.2000	0.234172
565.0000	0.234657
564.8000	0.235167
564.6000	0.235674
564.4000	0.236202
564.2000	0.236705
564.0000	0.237193
563.8000	0.23771
563.6000	0.238224
563.4000	0.238744
563.2000	0.239254
563.0000	0.239751
562.8000	0.240257
562.6000	0.240785
562.4000	0.24132
562.2000	0.241847
562.0000	0.242365
561.8000	0.242875
561.6000	0.243375
561.4000	0.243904
561.2000	0.244444
561.0000	0.245001
560.8000	0.245527
560.6000	0.246045
560.4000	0.246589
560.2000	0.247125
560.0000	0.247681
559.8000	0.248221
559.6000	0.248756
559.4000	0.249325
559.2000	0.249899
559.0000	0.250476
558.8000	0.251043
558.6000	0.251615
558.4000	0.252162
558.2000	0.252731
558.0000	0.25331
557.8000	0.253914
557.6000	0.254505
557.4000	0.255055
557.2000	0.255633
557.0000	0.256229
556.8000	0.256832
556.6000	0.257439
556.4000	0.258035
556.2000	0.258621
556.0000	0.259226
555.8000	0.259851
555.6000	0.260481
555.4000	0.261104
555.2000	0.261726
555.0000	0.262328
554.8000	0.262956
554.6000	0.263581
554.4000	0.264223
554.2000	0.264853
554.0000	0.265466
553.8000	0.266086
553.6000	0.266736
553.4000	0.267386
553.2000	0.268021
553.0000	0.268645
552.8000	0.269284
552.6000	0.269944
552.4000	0.270595
552.2000	0.271243
552.0000	0.271896
551.8000	0.272549
551.6000	0.27319
551.4000	0.273844
551.2000	0.274505
551.0000	0.27518
550.8000	0.275824
550.6000	0.276463
550.4000	0.277142
550.2000	0.27783
550.0000	0.278477
549.8000	0.279143
549.6000	0.27979
549.4000	0.280451
549.2000	0.281127
549.0000	0.281808
548.8000	0.282481
548.6000	0.283169
548.4000	0.283836
548.2000	0.284528
548.0000	0.285214
547.8000	0.285902
547.6000	0.286589
547.4000	0.287285
547.2000	0.287979
547.0000	0.288682
546.8000	0.289408
546.6000	0.290112
546.4000	0.290799
546.2000	0.291481
546.0000	0.292196
545.8000	0.292931
545.6000	0.293629
545.4000	0.294344
545.2000	0.295064
545.0000	0.295774
544.8000	0.296504
544.6000	0.297249
544.4000	0.29799
544.2000	0.298743
544.0000	0.299457
543.8000	0.300207
543.6000	0.300975
543.4000	0.301745
543.2000	0.30251
543.0000	0.303269
542.8000	0.304026
542.6000	0.304785
542.4000	0.305558
542.2000	0.306312
542.0000	0.307083
541.8000	0.307839
541.6000	0.308626
541.4000	0.309405
541.2000	0.310185
541.0000	0.31096
540.8000	0.311737
540.6000	0.312519
540.4000	0.313327
540.2000	0.314136
540.0000	0.314943
539.8000	0.315753
539.6000	0.316535
539.4000	0.317347
539.2000	0.318199
539.0000	0.319013
538.8000	0.319811
538.6000	0.32062
538.4000	0.321441
538.2000	0.322278
538.0000	0.323137
537.8000	0.323972
537.6000	0.3248
537.4000	0.325607
537.2000	0.326449
537.0000	0.32729
536.8000	0.328134
536.6000	0.328977
536.4000	0.329814
536.2000	0.330668
536.0000	0.331533
535.8000	0.332422
535.6000	0.333289
535.4000	0.334141
535.2000	0.334979
535.0000	0.335882
534.8000	0.33677
534.6000	0.337661
534.4000	0.338538
534.2000	0.339419
534.0000	0.340295
533.8000	0.341196
533.6000	0.34211
533.4000	0.343019
533.2000	0.343947
533.0000	0.344832
532.8000	0.345736
532.6000	0.346668
532.4000	0.347603
532.2000	0.348532
532.0000	0.349449
531.8000	0.350364
531.6000	0.351289
531.4000	0.352226
531.2000	0.353195
531.0000	0.354147
530.8000	0.355083
530.6000	0.356047
530.4000	0.357008
530.2000	0.357977
530.0000	0.358944
529.8000	0.359914
529.6000	0.360889
529.4000	0.361864
529.2000	0.362851
529.0000	0.363842
528.8000	0.364849
528.6000	0.365811
528.4000	0.366811
528.2000	0.367825
528.0000	0.368842
527.8000	0.369851
527.6000	0.370858
527.4000	0.371875
527.2000	0.372872
527.0000	0.3739
526.8000	0.374915
526.6000	0.375957
526.4000	0.376989
526.2000	0.378023
526.0000	0.379068
525.8000	0.380132
525.6000	0.381199
525.4000	0.382247
525.2000	0.383305
525.0000	0.384381
524.8000	0.385449
524.6000	0.386531
524.4000	0.387599
524.2000	0.388668
524.0000	0.38976
523.8000	0.390855
523.6000	0.39196
523.4000	0.393041
523.2000	0.394126
523.0000	0.395229
522.8000	0.396335
522.6000	0.397474
522.4000	0.398591
522.2000	0.399713
522.0000	0.400821
521.8000	0.401939
521.6000	0.403083
521.4000	0.404231
521.2000	0.405341
521.0000	0.406458
520.8000	0.407607
520.6000	0.408772
520.4000	0.40994
520.2000	0.41109
520.0000	0.412135
519.8000	0.413306
519.6000	0.414478
519.4000	0.415645
519.2000	0.416834
519.0000	0.417992
518.8000	0.419166
518.6000	0.42035
518.4000	0.421545
518.2000	0.422714
518.0000	0.423907
517.8000	0.425108
517.6000	0.426297
517.4000	0.427489
517.2000	0.428682
517.0000	0.429871
516.8000	0.431056
516.6000	0.432267
516.4000	0.433465
516.2000	0.434659
516.0000	0.435848
515.8000	0.437034
515.6000	0.438261
515.4000	0.43948
515.2000	0.440685
515.0000	0.4419
514.8000	0.443132
514.6000	0.444334
514.4000	0.445579
514.2000	0.44681
514.0000	0.448041
513.8000	0.449253
513.6000	0.450484
513.4000	0.451727
513.2000	0.452978
513.0000	0.454238
512.8000	0.455491
512.6000	0.456776
512.4000	0.458054
512.2000	0.459335
512.0000	0.460608
511.8000	0.461883
511.6000	0.463149
511.4000	0.464444
511.2000	0.465765
511.0000	0.467068
510.8000	0.468409
510.6000	0.469716
510.4000	0.471053
510.2000	0.4724
510.0000	0.473753
509.8000	0.475114
509.6000	0.476495
509.4000	0.477881
509.2000	0.479259
509.0000	0.480649
508.8000	0.482056
508.6000	0.48347
508.4000	0.484878
508.2000	0.486298
508.0000	0.48771
507.8000	0.489154
507.6000	0.490587
507.4000	0.492056
507.2000	0.493513
507.0000	0.494961
506.8000	0.496443
506.6000	0.497926
506.4000	0.499414
506.2000	0.500884
506.0000	0.502357
505.8000	0.503874
505.6000	0.505387
505.4000	0.506913
505.2000	0.508433
505.0000	0.509945
504.8000	0.511481
504.6000	0.513046
504.4000	0.514576
504.2000	0.516127
504.0000	0.517686
503.8000	0.519239
503.6000	0.520823
503.4000	0.522409
503.2000	0.523982
503.0000	0.525571
502.8000	0.527167
502.6000	0.528758
502.4000	0.530369
502.2000	0.531981
502.0000	0.533603
501.8000	0.535215
501.6000	0.536852
501.4000	0.538479
501.2000	0.540126
501.0000	0.541768
500.8000	0.543409
500.6000	0.545083
500.4000	0.546728
500.2000	0.548397
500.0000	0.550051
499.8000	0.551726
499.6000	0.553431
499.4000	0.555099
499.2000	0.556778
499.0000	0.558468
498.8000	0.560177
498.6000	0.561884
498.4000	0.563596
498.2000	0.565301
498.0000	0.56702
497.8000	0.568761
497.6000	0.5705
497.4000	0.57226
497.2000	0.573995
497.0000	0.575761
496.8000	0.577519
496.6000	0.579291
496.4000	0.58107
496.2000	0.582864
496.0000	0.584636
495.8000	0.58643
495.6000	0.588214
495.4000	0.590027
495.2000	0.591827
495.0000	0.593637
494.8000	0.595485
494.6000	0.597314
494.4000	0.599158
494.2000	0.601017
494.0000	0.602865
493.8000	0.604722
493.6000	0.606602
493.4000	0.608496
493.2000	0.610375
493.0000	0.612274
492.8000	0.614194
492.6000	0.616108
492.4000	0.617996
492.2000	0.619938
492.0000	0.621857
491.8000	0.62377
491.6000	0.625726
491.4000	0.627666
491.2000	0.629601
491.0000	0.63154
490.8000	0.633507
490.6000	0.635475
490.4000	0.637452
490.2000	0.639416
490.0000	0.641403
489.8000	0.643382
489.6000	0.645388
489.4000	0.647382
489.2000	0.649381
489.0000	0.6514
488.8000	0.653418
488.6000	0.655458
488.4000	0.657478
488.2000	0.659517
488.0000	0.661594
487.8000	0.663651
487.6000	0.665729
487.4000	0.667786
487.2000	0.669853
487.0000	0.671913
486.8000	0.673996
486.6000	0.676079
486.4000	0.678182
486.2000	0.680267
486.0000	0.682411
485.8000	0.684493
485.6000	0.686619
485.4000	0.688755
485.2000	0.690876
485.0000	0.693029
484.8000	0.69518
484.6000	0.697331
484.4000	0.69948
484.2000	0.70163
484.0000	0.703807
483.8000	0.705984
483.6000	0.708174
483.4000	0.710364
483.2000	0.712558
483.0000	0.71474
482.8000	0.716947
482.6000	0.71915
482.4000	0.72137
482.2000	0.723569
482.0000	0.725778
481.8000	0.728018
481.6000	0.730212
481.4000	0.732444
481.2000	0.73468
481.0000	0.736934
480.8000	0.739196
480.6000	0.741462
480.4000	0.743708
480.2000	0.745965
480.0000	0.748232
479.8000	0.750503
479.6000	0.752765
479.4000	0.75507
479.2000	0.757355
479.0000	0.75965
478.8000	0.761937
478.6000	0.764211
478.4000	0.766511
478.2000	0.768828
478.0000	0.771147
477.8000	0.773468
477.6000	0.775813
477.4000	0.778169
477.2000	0.780515
477.0000	0.782869
476.8000	0.785217
476.6000	0.787575
476.4000	0.78996
476.2000	0.792333
476.0000	0.794719
475.8000	0.797094
475.6000	0.79949
475.4000	0.801872
475.2000	0.804312
475.0000	0.806708
474.8000	0.809099
474.6000	0.81151
474.4000	0.81392
474.2000	0.816337
474.0000	0.818771
473.8000	0.821214
473.6000	0.823657
473.4000	0.826134
473.2000	0.828596
473.0000	0.831034
472.8000	0.833507
472.6000	0.835982
472.4000	0.838452
472.2000	0.840945
472.0000	0.843433
471.8000	0.845906
471.6000	0.848382
471.4000	0.8509
471.2000	0.853384
471.0000	0.85587
470.8000	0.858371
470.6000	0.860862
470.4000	0.863371
470.2000	0.865892
470.0000	0.868399
469.8000	0.870905
469.6000	0.873425
469.4000	0.875969
469.2000	0.878467
469.0000	0.881002
468.8000	0.883504
468.6000	0.886027
468.4000	0.888578
468.2000	0.891096
468.0000	0.893641
467.8000	0.896193
467.6000	0.898736
467.4000	0.901284
467.2000	0.903811
467.0000	0.906317
466.8000	0.908832
466.6000	0.911371
466.4000	0.913901
466.2000	0.916426
466.0000	0.91899
465.8000	0.921498
465.6000	0.924025
465.4000	0.926565
465.2000	0.929132
465.0000	0.931667
464.8000	0.934195
464.6000	0.936718
464.4000	0.939243
464.2000	0.941812
464.0000	0.944361
463.8000	0.946916
463.6000	0.949465
463.4000	0.952007
463.2000	0.954565
463.0000	0.957124
462.8000	0.95973
462.6000	0.962277
462.4000	0.964869
462.2000	0.967423
462.0000	0.969992
461.8000	0.972608
461.6000	0.975197
461.4000	0.977795
461.2000	0.980415
461.0000	0.983052
460.8000	0.985695
460.6000	0.988335
460.4000	0.99099
460.2000	0.993634
460.0000	0.996308
459.8000	0.998998
459.6000	1.00167
459.4000	1.00439
459.2000	1.00712
459.0000	1.00987
458.8000	1.01256
458.6000	1.01526
458.4000	1.01799
458.2000	1.02075
458.0000	1.02351
457.8000	1.02623
457.6000	1.02902
457.4000	1.03181
457.2000	1.03461
457.0000	1.03745
456.8000	1.04023
456.6000	1.04303
456.4000	1.04583
456.2000	1.04868
456.0000	1.05148
455.8000	1.05435
455.6000	1.05718
455.4000	1.06003
455.2000	1.06289
455.0000	1.06574
454.8000	1.06858
454.6000	1.07144
454.4000	1.0743
454.2000	1.07719
454.0000	1.08011
453.8000	1.08303
453.6000	1.08591
453.4000	1.08879
453.2000	1.09171
453.0000	1.09464
452.8000	1.09757
452.6000	1.10047
452.4000	1.10341
452.2000	1.10634
452.0000	1.10929
451.8000	1.11223
451.6000	1.1152
451.4000	1.11818
451.2000	1.12113
451.0000	1.1241
450.8000	1.12707
450.6000	1.13001
450.4000	1.13304
450.2000	1.13605
450.0000	1.13905
449.8000	1.14205
449.6000	1.14506
449.4000	1.14808
449.2000	1.15114
449.0000	1.15415
448.8000	1.15717
448.6000	1.16024
448.4000	1.16335
448.2000	1.1664
448.0000	1.16947
447.8000	1.17255
447.6000	1.17562
447.4000	1.17875
447.2000	1.1819
447.0000	1.18506
446.8000	1.18822
446.6000	1.19134
446.4000	1.1945
446.2000	1.19767
446.0000	1.20085
445.8000	1.20406
445.6000	1.20726
445.4000	1.2105
445.2000	1.2137
445.0000	1.21693
444.8000	1.22022
444.6000	1.22349
444.4000	1.22675
444.2000	1.23006
444.0000	1.23332
443.8000	1.23664
443.6000	1.23995
443.4000	1.24329
443.2000	1.24666
443.0000	1.25003
442.8000	1.25344
442.6000	1.25686
442.4000	1.26031
442.2000	1.26372
442.0000	1.26715
441.8000	1.27066
441.6000	1.27413
441.4000	1.27764
441.2000	1.28116
441.0000	1.28465
440.8000	1.28817
440.6000	1.29162
440.4000	1.29516
440.2000	1.29876
440.0000	1.30231
439.8000	1.30589
439.6000	1.3095
439.4000	1.3131
439.2000	1.31678
439.0000	1.32043
438.8000	1.32411
438.6000	1.32778
438.4000	1.33144
438.2000	1.33515
438.0000	1.33892
437.8000	1.34264
437.6000	1.34643
437.4000	1.35016
437.2000	1.35397
437.0000	1.35779
436.8000	1.3616
436.6000	1.36543
436.4000	1.36929
436.2000	1.37315
436.0000	1.37708
435.8000	1.381
435.6000	1.38493
435.4000	1.38888
435.2000	1.39285
435.0000	1.39684
434.8000	1.40082
434.6000	1.40485
434.4000	1.40886
434.2000	1.41304
434.0000	1.41713
433.8000	1.42122
433.6000	1.42538
433.4000	1.42955
433.2000	1.43377
433.0000	1.43799
432.8000	1.44218
432.6000	1.4464
432.4000	1.45071
432.2000	1.455
432.0000	1.45929
431.8000	1.4636
431.6000	1.46791
431.4000	1.4723
431.2000	1.47669
431.0000	1.48107
430.8000	1.48551
430.6000	1.48995
430.4000	1.49442
430.2000	1.49889
430.0000	1.50334
429.8000	1.50786
429.6000	1.51232
429.4000	1.5168
429.2000	1.52138
429.0000	1.52586
428.8000	1.53045
428.6000	1.53499
428.4000	1.53958
428.2000	1.5442
428.0000	1.54886
427.8000	1.55349
427.6000	1.55815
427.4000	1.56282
427.2000	1.5675
427.0000	1.57218
426.8000	1.57688
426.6000	1.5816
426.4000	1.58634
426.2000	1.59105
426.0000	1.59573
425.8000	1.60051
425.6000	1.6053
425.4000	1.6101
425.2000	1.61485
425.0000	1.61958
424.8000	1.62432
424.6000	1.62918
424.4000	1.63396
424.2000	1.63873
424.0000	1.64355
423.8000	1.64841
423.6000	1.65324
423.4000	1.658
423.2000	1.6628
423.0000	1.66765
422.8000	1.67241
422.6000	1.67725
422.4000	1.68202
422.2000	1.68689
422.0000	1.69167
421.8000	1.69641
421.6000	1.70111
421.4000	1.70581
421.2000	1.71056
421.0000	1.71531
420.8000	1.71997
420.6000	1.72465
420.4000	1.72925
420.2000	1.7339
420.0000	1.73922
419.8000	1.74381
419.6000	1.74852
419.4000	1.75308
419.2000	1.75757
419.0000	1.76208
418.8000	1.76657
418.6000	1.771
418.4000	1.77557
418.2000	1.78
418.0000	1.7843
417.8000	1.78863
417.6000	1.79308
417.4000	1.79739
417.2000	1.80171
417.0000	1.80588
416.8000	1.81014
416.6000	1.8143
416.4000	1.81846
416.2000	1.82259
416.0000	1.82647
415.8000	1.83045
415.6000	1.83438
415.4000	1.83833
415.2000	1.84221
415.0000	1.84597
414.8000	1.84978
414.6000	1.85363
414.4000	1.85733
414.2000	1.86105
414.0000	1.86464
413.8000	1.86821
413.6000	1.87173
413.4000	1.8752
413.2000	1.87851
413.0000	1.88181
412.8000	1.8851
412.6000	1.88845
412.4000	1.89174
412.2000	1.89487
412.0000	1.89786
411.8000	1.90095
411.6000	1.90409
411.4000	1.90716
411.2000	1.90995
411.0000	1.91274
410.8000	1.91546
410.6000	1.91825
410.4000	1.9207
410.2000	1.92328
410.0000	1.92571
409.8000	1.92797
409.6000	1.9304
409.4000	1.93275
409.2000	1.93505
409.0000	1.9372
408.8000	1.93924
408.6000	1.94127
408.4000	1.94328
408.2000	1.94507
408.0000	1.9468
407.8000	1.94847
407.6000	1.95017
407.4000	1.95171
407.2000	1.95313
407.0000	1.95455
406.8000	1.95594
406.6000	1.95722
406.4000	1.9584
406.2000	1.95939
406.0000	1.96027
405.8000	1.96126
405.6000	1.96213
405.4000	1.96289
405.2000	1.96348
405.0000	1.964
404.8000	1.96444
404.6000	1.96482
404.4000	1.96513
404.2000	1.96529
404.0000	1.96549
403.8000	1.96565
403.6000	1.96564
403.4000	1.96559
403.2000	1.96535
403.0000	1.96493
402.8000	1.96444
402.6000	1.96397
402.4000	1.96336
402.2000	1.96261
402.0000	1.96172
401.8000	1.96083
401.6000	1.95983
401.4000	1.95871
401.2000	1.95746
401.0000	1.95609
400.8000	1.95466
400.6000	1.95304
400.4000	1.95137
400.2000	1.94951
400.0000	1.94764
399.8000	1.94566
399.6000	1.94366
399.4000	1.94146
399.2000	1.93915
399.0000	1.9367
398.8000	1.93409
398.6000	1.93145
398.4000	1.92875
398.2000	1.92587
398.0000	1.92291
397.8000	1.91988
397.6000	1.91667
397.4000	1.9133
397.2000	1.90991
397.0000	1.90631
396.8000	1.90266
396.6000	1.89895
396.4000	1.89511
396.2000	1.89107
396.0000	1.88702
395.8000	1.88287
395.6000	1.87854
395.4000	1.87398
395.2000	1.86957
395.0000	1.86498
394.8000	1.86029
394.6000	1.85552
394.4000	1.8507
394.2000	1.84582
394.0000	1.84071
393.8000	1.8356
393.6000	1.83032
393.4000	1.82504
393.2000	1.81946
393.0000	1.81389
392.8000	1.80817
392.6000	1.8025
392.4000	1.79671
392.2000	1.79079
392.0000	1.7848
391.8000	1.77871
391.6000	1.77265
391.4000	1.76642
391.2000	1.76013
391.0000	1.75373
390.8000	1.74729
390.6000	1.74085
390.4000	1.73427
390.2000	1.72768
390.0000	1.72098
389.8000	1.7143
389.6000	1.70751
389.4000	1.70068
389.2000	1.69376
389.0000	1.68689
388.8000	1.67992
388.6000	1.67287
388.4000	1.6658
388.2000	1.65865
388.0000	1.65133
387.8000	1.6441
387.6000	1.63688
387.4000	1.62951
387.2000	1.62217
387.0000	1.61475
386.8000	1.6074
386.6000	1.59995
386.4000	1.59251
386.2000	1.58497
386.0000	1.57746
385.8000	1.56988
385.6000	1.56228
385.4000	1.55472
385.2000	1.54694
385.0000	1.53927
384.8000	1.53162
384.6000	1.52387
384.4000	1.51613
384.2000	1.50829
384.0000	1.50047
383.8000	1.49263
383.6000	1.48484
383.4000	1.47701
383.2000	1.46918
383.0000	1.46137
382.8000	1.45358
382.6000	1.44578
382.4000	1.43791
382.2000	1.43008
382.0000	1.42229
381.8000	1.41449
381.6000	1.40679
381.4000	1.399
381.2000	1.39119
381.0000	1.38342
380.8000	1.37569
380.6000	1.36793
380.4000	1.36025
380.2000	1.35258
380.0000	1.34492
379.8000	1.33725
379.6000	1.32964
379.4000	1.32204
379.2000	1.3144
379.0000	1.30674
378.8000	1.29919
378.6000	1.29165
378.4000	1.28407
378.2000	1.27667
378.0000	1.26924
377.8000	1.26182
377.6000	1.25446
377.4000	1.24713
377.2000	1.23981
377.0000	1.23251
376.8000	1.22524
376.6000	1.21797
376.4000	1.21077
376.2000	1.20353
376.0000	1.19637
375.8000	1.18922
375.6000	1.18205
375.4000	1.17491
375.2000	1.16785
375.0000	1.1608
374.8000	1.15376
374.6000	1.14679
374.4000	1.13989
374.2000	1.13296
374.0000	1.12607
373.8000	1.11924
373.6000	1.1124
373.4000	1.10567
373.2000	1.0989
373.0000	1.09218
372.8000	1.08552
372.6000	1.07894
372.4000	1.07234
372.2000	1.06574
372.0000	1.05925
371.8000	1.05268
371.6000	1.04622
371.4000	1.03978
371.2000	1.03338
371.0000	1.02698
370.8000	1.02061
370.6000	1.01433
370.4000	1.00803
370.2000	1.00183
370.0000	0.99499
369.8000	0.988737
369.6000	0.982588
369.4000	0.976459
369.2000	0.970509
369.0000	0.964454
368.8000	0.958415
368.6000	0.952305
368.4000	0.946461
368.2000	0.940664
368.0000	0.934841
367.8000	0.929076
367.6000	0.923502
367.4000	0.917736
367.2000	0.912152
367.0000	0.906431
366.8000	0.900942
366.6000	0.895342
366.4000	0.889833
366.2000	0.884265
366.0000	0.878838
365.8000	0.873384
365.6000	0.868011
365.4000	0.862732
365.2000	0.85749
365.0000	0.852211
364.8000	0.846913
364.6000	0.841666
364.4000	0.836611
364.2000	0.831488
364.0000	0.826423
363.8000	0.821395
363.6000	0.816458
363.4000	0.811507
363.2000	0.806466
363.0000	0.801546
362.8000	0.796559
362.6000	0.791703
362.4000	0.786808
362.2000	0.782017
362.0000	0.777197
361.8000	0.772283
361.6000	0.767572
361.4000	0.762893
361.2000	0.758206
361.0000	0.753576
360.8000	0.748857
360.6000	0.744308
360.4000	0.739664
360.2000	0.735105
360.0000	0.730618
359.8000	0.726118
359.6000	0.72151
359.4000	0.717048
359.2000	0.712516
359.0000	0.708062
358.8000	0.703591
358.6000	0.699246
358.4000	0.69494
358.2000	0.69066
358.0000	0.686271
357.8000	0.681967
357.6000	0.677642
357.4000	0.673298
357.2000	0.669015
357.0000	0.664751
356.8000	0.660573
356.6000	0.656325
356.4000	0.652094
356.2000	0.647893
356.0000	0.64375
355.8000	0.639601
355.6000	0.635535
355.4000	0.631391
355.2000	0.627238
355.0000	0.623059
354.8000	0.618891
354.6000	0.614661
354.4000	0.610479
354.2000	0.606262
354.0000	0.602143
353.8000	0.597947
353.6000	0.593743
353.4000	0.589604
353.2000	0.585478
353.0000	0.581283
352.8000	0.577128
352.6000	0.57295
352.4000	0.568782
352.2000	0.564524
352.0000	0.560237
351.8000	0.555938
351.6000	0.551566
351.4000	0.54725
351.2000	0.542897
351.0000	0.538585
350.8000	0.534236
350.6000	0.529862
350.4000	0.525463
350.2000	0.521044
350.0000	0.516579
349.8000	0.512083
349.6000	0.507663
349.4000	0.503208
349.2000	0.498656
349.0000	0.494092
348.8000	0.489528
348.6000	0.484973
348.4000	0.480332
348.2000	0.475788
348.0000	0.4712
347.8000	0.466533
347.6000	0.46189
347.4000	0.457153
347.2000	0.452417
347.0000	0.447665
346.8000	0.442918
346.6000	0.438251
346.4000	0.433474
346.2000	0.428689
346.0000	0.423967
345.8000	0.419248
345.6000	0.414479
345.4000	0.409701
345.2000	0.405022
345.0000	0.400345
344.8000	0.395654
344.6000	0.390922
344.4000	0.386272
344.2000	0.381565
344.0000	0.376875
343.8000	0.372232
343.6000	0.367632
343.4000	0.363048
343.2000	0.358457
343.0000	0.353894
342.8000	0.349259
342.6000	0.34476
342.4000	0.340344
342.2000	0.335905
342.0000	0.33157
341.8000	0.327254
341.6000	0.322936
341.4000	0.318731
341.2000	0.314448
341.0000	0.310372
340.8000	0.306343
340.6000	0.302292
340.4000	0.298244
340.2000	0.294239
340.0000	0.290482
339.8000	0.286663
339.6000	0.282789
339.4000	0.279059
339.2000	0.27532
339.0000	0.271712
338.8000	0.268106
338.6000	0.264544
338.4000	0.261124
338.2000	0.257669
338.0000	0.25433
337.8000	0.25107
337.6000	0.247829
337.4000	0.244648
337.2000	0.241528
337.0000	0.238463
336.8000	0.235419
336.6000	0.232458
336.4000	0.22958
336.2000	0.226717
336.0000	0.223942
335.8000	0.221204
335.6000	0.21848
335.4000	0.215822
335.2000	0.213269
335.0000	0.21078
334.8000	0.208324
334.6000	0.205922
334.4000	0.203604
334.2000	0.201259
334.0000	0.199001
333.8000	0.196844
333.6000	0.194691
333.4000	0.192525
333.2000	0.190509
333.0000	0.188507
332.8000	0.186615
332.6000	0.184739
332.4000	0.182921
332.2000	0.181099
332.0000	0.179285
331.8000	0.177576
331.6000	0.175932
331.4000	0.174301
331.2000	0.172737
331.0000	0.171207
330.8000	0.169715
330.6000	0.16829
330.4000	0.166921
330.2000	0.165583
330.0000	0.164267
329.8000	0.163034
329.6000	0.161853
329.4000	0.160707
329.2000	0.159605
329.0000	0.158509
328.8000	0.157463
328.6000	0.156471
328.4000	0.155522
328.2000	0.154571
328.0000	0.153677
327.8000	0.152787
327.6000	0.15198
327.4000	0.151205
327.2000	0.150466
327.0000	0.149763
326.8000	0.14907
326.6000	0.148425
326.4000	0.147811
326.2000	0.147248
326.0000	0.146685
325.8000	0.146212
325.6000	0.145756
325.4000	0.145361
325.2000	0.144972
325.0000	0.144645
324.8000	0.144368
324.6000	0.144072
324.4000	0.143855
324.2000	0.143609
324.0000	0.143457
323.8000	0.143324
323.6000	0.143215
323.4000	0.143146
323.2000	0.143071
323.0000	0.143094
322.8000	0.143146
322.6000	0.143221
322.4000	0.143277
322.2000	0.143442
322.0000	0.143627
321.8000	0.143811
321.6000	0.144067
321.4000	0.144385
321.2000	0.144702
321.0000	0.145037
320.8000	0.145464
320.6000	0.145934
320.4000	0.14638
320.2000	0.146889
320.0000	0.147428
319.8000	0.147997
319.6000	0.148632
319.4000	0.149285
319.2000	0.149999
319.0000	0.150687
318.8000	0.151423
318.6000	0.152189
318.4000	0.152998
318.2000	0.153873
318.0000	0.154714
317.8000	0.155658
317.6000	0.156558
317.4000	0.15753
317.2000	0.158551
317.0000	0.15956
316.8000	0.160604
316.6000	0.161683
316.4000	0.162806
316.2000	0.163931
316.0000	0.165116
315.8000	0.166335
315.6000	0.167538
315.4000	0.168845
315.2000	0.170126
315.0000	0.171465
314.8000	0.172817
314.6000	0.174217
314.4000	0.175611
314.2000	0.177041
314.0000	0.178536
313.8000	0.179997
313.6000	0.1815
313.4000	0.183055
313.2000	0.184657
313.0000	0.186281
312.8000	0.187933
312.6000	0.189621
312.4000	0.191375
312.2000	0.193095
312.0000	0.194863
311.8000	0.196666
311.6000	0.1985
311.4000	0.200335
311.2000	0.202221
311.0000	0.204124
310.8000	0.206038
310.6000	0.208053
310.4000	0.210091
310.2000	0.212129
310.0000	0.214185
309.8000	0.216307
309.6000	0.218461
309.4000	0.2206
309.2000	0.222801
309.0000	0.224974
308.8000	0.227199
308.6000	0.229505
308.4000	0.231795
308.2000	0.234062
308.0000	0.236429
307.8000	0.238821
307.6000	0.24122
307.4000	0.243668
307.2000	0.24611
307.0000	0.248545
306.8000	0.250976
306.6000	0.253466
306.4000	0.255962
306.2000	0.258468
306.0000	0.260974
305.8000	0.263548
305.6000	0.266102
305.4000	0.268686
305.2000	0.271307
305.0000	0.273953
304.8000	0.276571
304.6000	0.279179
304.4000	0.281781
304.2000	0.284376
304.0000	0.286987
303.8000	0.289615
303.6000	0.292253
303.4000	0.294878
303.2000	0.297532
303.0000	0.300137
302.8000	0.302744
302.6000	0.305388
302.4000	0.308035
302.2000	0.310643
302.0000	0.31326
301.8000	0.31593
301.6000	0.318553
301.4000	0.321137
301.2000	0.323699
301.0000	0.326257
300.8000	0.328795
300.6000	0.331359
300.4000	0.333886
300.2000	0.336396
300.0000	0.338904

##### Extended Information
#[Comments]
#Sample name
#Comment
#User
#Division
#Company	NCTU

#[Detailed Information]
#Creation date	5/3/2023 12:00 PM

#Data array type	Linear data array
#Horizontal axis	Wavelength [nm]
#Vertical axis	Abs
#Start	800 nm
#End	300 nm
#Data interval	0.2 nm
#Data points	2501    

#[Measurement Information]
#Instrument name	V-660
#Model name	V-660
#Serial No.	A023561152

#Accessory	USE-753
#Accessory S/N	A023561152
#  Cell length	10 mm

#Photometric mode	Abs
#Measurement range	800 - 300 nm
#Data interval	0.2 nm
#UV/Vis bandwidth	1.0 nm
#Response	Medium
#Scan speed	400 nm/min
#Change source at	340 nm
#Light source	D2/WI
#Filter exchange	Step
#Correction	Baseline

